History written: Thu Aug 07 19:41:40 2014
produced by Frandsens
##### PDFgui fit
stype=N  neutron scattering
qmax=35.00
qdamp=0.0200962
qbroad=0.0290611
dscale=0.968154
fitrmin=0
fitrmax=20
# metadata
temperature=15.0
##### start data
#L r(A) G(r) d_r d_Gr Gdiff
0.01 -0.305833 0.0 3.67616 3.67616
0.02 -0.269398 0.0 6.74797 6.74797
0.03 -0.20362 0.0 9.30018 9.30018
0.04 -0.116984 0.0 11.1771 11.1771
0.05 -0.0207266 0.0 12.3129 12.3129
0.06 0.0725051 0.0 12.7431 12.7431
0.07 0.150173 0.0 12.6055 12.6055
0.08 0.201384 0.0 12.1284 12.1284
0.09 0.218247 0.0 11.6095 11.6095
0.1 0.196889 0.0 11.385 11.385
0.11 0.137991 0.0 11.7962 11.7962
0.12 0.0467838 0.0 13.1517 13.1517
0.13 -0.0675107 0.0 15.6951 15.6951
0.14 -0.192734 0.0 19.5764 19.5764
0.15 -0.315221 0.0 24.8348 24.8348
0.16 -0.421427 0.0 31.3902 31.3902
0.17 -0.499581 0.0 39.049 39.049
0.18 -0.541135 0.0 47.5192 47.5192
0.19 -0.54185 0.0 56.4367 56.4367
0.2 -0.502385 0.0 65.3979 65.3979
0.21 -0.428283 0.0 73.9962 73.9962
0.22 -0.32938 0.0 81.8586 81.8586
0.23 -0.218675 0.0 88.678 88.678
0.24 -0.110801 0.0 94.2391 94.2391
0.25 -0.0202748 0.0 98.4342 98.4342
0.26 0.0402719 0.0 101.268 101.268
0.27 0.0616523 0.0 102.851 102.851
0.28 0.0392964 0.0 103.386 103.386
0.29 -0.0261212 0.0 103.136 103.136
0.3 -0.128681 0.0 102.403 102.403
0.31 -0.257853 0.0 101.487 101.487
0.32 -0.399705 0.0 100.66 100.66
0.33 -0.538543 0.0 100.138 100.138
0.34 -0.658784 0.0 100.058 100.058
0.35 -0.746861 0.0 100.476 100.476
0.36 -0.792896 0.0 101.356 101.356
0.37 -0.791969 0.0 102.588 102.588
0.38 -0.74479 0.0 104.003 104.003
0.39 -0.657709 0.0 105.395 105.395
0.4 -0.542033 0.0 106.55 106.55
0.41 -0.412738 0.0 107.276 107.276
0.42 -0.286702 0.0 107.42 107.42
0.43 -0.180689 0.0 106.895 106.895
0.44 -0.109304 0.0 105.685 105.685
0.45 -0.0831845 0.0 103.854 103.854
0.46 -0.107635 0.0 101.53 101.53
0.47 -0.181896 0.0 98.8967 98.8967
0.48 -0.299129 0.0 96.1749 96.1749
0.49 -0.447148 0.0 93.5915 93.5915
0.5 -0.60981 0.0 91.3574 91.3574
0.51 -0.768909 0.0 89.6429 89.6429
0.52 -0.906361 0.0 88.5584 88.5584
0.53 -1.0064 0.0 88.1417 88.1417
0.54 -1.05754 0.0 88.3536 88.3536
0.55 -1.05406 0.0 89.0815 89.0815
0.56 -0.996775 0.0 90.1508 90.1508
0.57 -0.89308 0.0 91.3441 91.3441
0.58 -0.756154 0.0 92.4242 92.4242
0.59 -0.603459 0.0 93.1589 93.1589
0.6 -0.454693 0.0 93.3458 93.3458
0.61 -0.329433 0.0 92.8338 92.8338
0.62 -0.244745 0.0 91.5388 91.5388
0.63 -0.213064 0.0 89.4525 89.4525
0.64 -0.240591 0.0 86.6427 86.6427
0.65 -0.326426 0.0 83.2472 83.2472
0.66 -0.462544 0.0 79.4588 79.4588
0.67 -0.63464 0.0 75.5058 75.5058
0.68 -0.823754 0.0 71.6293 71.6293
0.69 -1.00849 0.0 68.0589 68.0589
0.7 -1.1676 0.0 64.9908 64.9908
0.71 -1.28252 0.0 62.5694 62.5694
0.72 -1.33975 0.0 60.8744 60.8744
0.73 -1.33256 0.0 59.9146 59.9146
0.74 -1.26194 0.0 59.6296 59.6296
0.75 -1.13665 0.0 59.8985 59.8985
0.76 -0.97227 0.0 60.5531 60.5531
0.77 -0.789478 0.0 61.3967 61.3967
0.78 -0.611597 0.0 62.2248 62.2248
0.79 -0.461817 0.0 62.8457 62.8457
0.8 -0.360365 0.0 63.099 63.099
0.81 -0.321974 0.0 62.8701 62.8701
0.82 -0.353981 0.0 62.0999 62.0999
0.83 -0.455275 0.0 60.7883 60.7883
0.84 -0.616267 0.0 58.9909 58.9909
0.85 -0.819879 0.0 56.8113 56.8113
0.86 -1.04347 0.0 54.3879 54.3879
0.87 -1.2615 0.0 51.8783 51.8783
0.88 -1.44856 0.0 49.4422 49.4422
0.89 -1.58248 0.0 47.2247 47.2247
0.9 -1.64713 0.0 45.3422 45.3422
0.91 -1.63448 0.0 43.872 43.872
0.92 -1.54578 0.0 42.8458 42.8458
0.93 -1.3916 0.0 42.2485 42.2485
0.94 -1.19073 0.0 42.0225 42.0225
0.95 -0.968109 0.0 42.0751 42.0751
0.96 -0.751853 0.0 42.2898 42.2898
0.97 -0.569947 0.0 42.5394 42.5394
0.98 -0.446795 0.0 42.7001 42.7001
0.99 -0.40017 0.0 42.6635 42.6635
1 -0.438891 0.0 42.3478 42.3478
1.01 -0.561538 0.0 41.7053 41.7053
1.02 -0.756392 0.0 40.7261 40.7261
1.03 -1.00263 0.0 39.438 39.438
1.04 -1.27266 0.0 37.9029 37.9029
1.05 -1.53531 0.0 36.2095 36.2095
1.06 -1.7596 0.0 34.4652 34.4652
1.07 -1.91849 0.0 32.7839 32.7839
1.08 -1.99229 0.0 31.2768 31.2768
1.09 -1.97127 0.0 30.0413 30.0413
1.1 -1.85704 0.0 29.1531 29.1531
1.11 -1.66271 0.0 28.6607 28.6607
1.12 -1.41149 0.0 28.5811 28.5811
1.13 -1.13416 0.0 28.9001 28.9001
1.14 -0.865464 0.0 29.5743 29.5743
1.15 -0.639972 0.0 30.5359 30.5359
1.16 -0.487847 0.0 31.6989 31.6989
1.17 -0.431033 0.0 32.9671 32.9671
1.18 -0.480362 0.0 34.2413 34.2413
1.19 -0.633932 0.0 35.4275 35.4275
1.2 -0.877003 0.0 36.4438 36.4438
1.21 -1.18347 0.0 37.2255 37.2255
1.22 -1.51873 0.0 37.7294 37.7294
1.23 -1.84373 0.0 37.9356 37.9356
1.24 -2.11959 0.0 37.8479 37.8479
1.25 -2.3124 0.0 37.492 37.492
1.26 -2.3975 0.0 36.9127 36.9127
1.27 -2.36275 0.0 36.1696 36.1696
1.28 -2.21041 0.0 35.3318 35.3318
1.29 -1.95726 0.0 34.473 34.473
1.3 -1.63292 0.0 33.6647 33.6647
1.31 -1.27666 0.0 32.9722 32.9722
1.32 -0.932813 0.0 32.4488 32.4488
1.33 -0.645521 0.0 32.1326 32.1326
1.34 -0.453282 0.0 32.0436 32.0436
1.35 -0.384069 0.0 32.1826 32.1826
1.36 -0.451572 0.0 32.5311 32.5311
1.37 -0.653069 0.0 33.0531 33.0531
1.38 -0.969249 0.0 33.698 33.698
1.39 -1.36606 0.0 34.4045 34.4045
1.4 -1.79843 0.0 35.1054 35.1054
1.41 -2.21544 0.0 35.7337 35.7337
1.42 -2.56641 0.0 36.2275 36.2275
1.43 -2.80711 0.0 36.5354 36.5354
1.44 -2.90547 0.0 36.621 36.621
1.45 -2.84588 0.0 36.466 36.466
1.46 -2.63173 0.0 36.072 36.072
1.47 -2.28559 0.0 35.4605 35.4605
1.48 -1.84718 0.0 34.6706 34.6706
1.49 -1.36899 0.0 33.7559 33.7559
1.5 -0.910342 0.0 32.7795 32.7795
1.51 -0.530291 0.0 31.8085 31.8085
1.52 -0.28033 0.0 30.9071 30.9071
1.53 -0.197756 0.0 30.1315 30.1315
1.54 -0.300526 0.0 29.5238 29.5238
1.55 -0.584301 0.0 29.1092 29.1092
1.56 -1.02211 0.0 28.8934 28.8934
1.57 -1.5668 0.0 28.863 28.863
1.58 -2.15605 0.0 28.9878 28.9878
1.59 -2.71949 0.0 29.2246 29.2246
1.6 -3.18706 0.0 29.5228 29.5228
1.61 -3.49772 0.0 29.8307 29.8307
1.62 -3.60741 0.0 30.1028 30.1028
1.63 -3.49521 0.0 30.3042 30.3042
1.64 -3.16699 0.0 30.4165 30.4165
1.65 -2.65587 0.0 30.4398 30.4398
1.66 -2.01929 0.0 30.393 30.393
1.67 -1.33306 0.0 30.3123 30.3123
1.68 -0.682706 0.0 30.246 30.246
1.69 -0.153323 0.0 30.2491 30.2491
1.7 0.181079 0.0 30.3758 30.3758
1.71 0.267365 0.0 30.672 30.672
1.72 0.0809596 0.0 31.1683 31.1683
1.73 -0.3696 0.0 31.8748 31.8748
1.74 -1.042 0.0 32.7777 32.7777
1.75 -1.86366 0.0 33.8395 33.8395
1.76 -2.73918 0.0 35.0009 35.0009
1.77 -3.56107 0.0 36.187 36.187
1.78 -4.22261 0.0 37.3145 37.3145
1.79 -4.63135 0.0 38.3012 38.3012
1.8 -4.72166 0.0 39.0759 39.0759
1.81 -4.46468 0.0 39.5874 39.5874
1.82 -3.8743 0.0 39.8119 39.8119
1.83 -3.00813 0.0 39.7578 39.7578
1.84 -1.96305 0.0 39.467 39.467
1.85 -0.865509 0.0 39.0113 39.0113
1.86 0.142682 0.0 38.4873 38.4873
1.87 0.921458 0.0 38.0061 38.0061
1.88 1.35073 0.0 37.6811 37.6811
1.89 1.34746 0.0 37.615 37.615
1.9 0.879313 0.0 37.8873 37.8873
1.91 -0.0270989 0.0 38.5425 38.5425
1.92 -1.2851 0.0 39.5825 39.5825
1.93 -2.75475 0.0 40.9627 40.9627
1.94 -4.25768 0.0 42.5922 42.5922
1.95 -5.59912 0.0 44.3403 44.3403
1.96 -6.59534 0.0 46.0466 46.0466
1.97 -7.10395 0.0 47.5347 47.5347
1.98 -7.05402 0.0 48.6294 48.6294
1.99 -6.47248 0.0 49.1732 49.1732
2 -5.50353 0.0 49.043 49.043
2.01 -4.41819 0.0 48.1642 48.1642
2.02 -3.61156 0.0 46.5195 46.5195
2.03 -3.58689 0.0 44.1531 44.1531
2.04 -4.92634 0.0 41.1701 41.1701
2.05 -8.24989 0.0 37.7281 37.7281
2.06 -14.1651 0.0 34.0248 34.0248
2.07 -23.2111 0.0 30.2816 30.2816
2.08 -35.8027 0.0 26.7243 26.7243
2.09 -52.1769 0.0 23.5629 23.5629
2.1 -72.3508 0.0 20.9739 20.9739
2.11 -96.0912 0.0 19.084 19.084
2.12 -122.903 0.0 17.9599 17.9599
2.13 -152.036 0.0 17.6049 17.6049
2.14 -182.513 0.0 17.9551 17.9551
2.15 -213.178 0.0 18.8938 18.8938
2.16 -242.756 0.0 20.2575 20.2575
2.17 -269.936 0.0 21.8556 21.8556
2.18 -293.444 0.0 23.49 23.49
2.19 -312.136 0.0 24.9694 24.9694
2.2 -325.071 0.0 26.1304 26.1304
2.21 -331.576 0.0 26.8524 26.8524
2.22 -331.296 0.0 27.0633 27.0633
2.23 -324.22 0.0 26.7451 26.7451
2.24 -310.683 0.0 25.9365 25.9365
2.25 -291.348 0.0 24.7181 24.7181
2.26 -267.157 0.0 23.2093 23.2093
2.27 -239.273 0.0 21.5501 21.5501
2.28 -208.999 0.0 19.8847 19.8847
2.29 -177.692 0.0 18.3485 18.3485
2.3 -146.681 0.0 17.057 17.057
2.31 -117.177 0.0 16.0898 16.0898
2.32 -90.2075 0.0 15.4891 15.4891
2.33 -66.5619 0.0 15.2593 15.2593
2.34 -46.7556 0.0 15.367 15.367
2.35 -31.0192 0.0 15.7502 15.7502
2.36 -19.3082 0.0 16.3276 16.3276
2.37 -11.333 0.0 17.0094 17.0094
2.38 -6.60569 0.0 17.709 17.709
2.39 -4.49884 0.0 18.3522 18.3522
2.4 -4.30999 0.0 18.8848 18.8848
2.41 -5.32701 0.0 19.2761 19.2761
2.42 -6.88808 0.0 19.5198 19.5198
2.43 -8.4315 0.0 19.6297 19.6297
2.44 -9.53175 0.0 19.6345 19.6345
2.45 -9.91953 0.0 19.5697 19.5697
2.46 -9.48512 0.0 19.4681 19.4681
2.47 -8.26596 0.0 19.3525 19.3525
2.48 -6.42107 0.0 19.229 19.229
2.49 -4.19553 0.0 19.0833 19.0833
2.5 -1.87954 0.0 18.8808 18.8808
2.51 0.23345 0.0 18.5693 18.5693
2.52 1.88524 0.0 18.0856 18.0856
2.53 2.88403 0.0 17.3639 17.3639
2.54 3.12554 0.0 16.3461 16.3461
2.55 2.60234 0.0 14.9915 14.9915
2.56 1.40122 0.0 13.2853 13.2853
2.57 -0.310691 0.0 11.2445 11.2445
2.58 -2.30863 0.0 8.92005 8.92005
2.59 -4.33898 0.0 6.39562 6.39562
2.6 -6.15051 0.0 3.78132 3.78132
2.61 -7.52438 0.0 1.20441 1.20441
2.62 -8.29959 0.0 -1.20283 -1.20283
2.63 -8.39102 0.0 -3.31668 -3.31668
2.64 -7.79818 0.0 -5.03522 -5.03522
2.65 -6.60389 0.0 -6.29021 -6.29021
2.66 -4.96319 0.0 -7.05581 -7.05581
2.67 -3.084 0.0 -7.3526 -7.3526
2.68 -1.20163 0.0 -7.24726 -7.24726
2.69 0.449528 0.0 -6.84732 -6.84732
2.7 1.66413 0.0 -6.29091 -6.29091
2.71 2.29047 0.0 -5.73346 -5.73346
2.72 2.2487 0.0 -5.33197 -5.33197
2.73 1.5406 0.0 -5.22896 -5.22896
2.74 0.249751 0.0 -5.53765 -5.53765
2.75 -1.46798 0.0 -6.33013 -6.33013
2.76 -3.40259 0.0 -7.62971 -7.62971
2.77 -5.31469 0.0 -9.40851 -9.40851
2.78 -6.96408 0.0 -11.5904 -11.5904
2.79 -8.13883 0.0 -14.0592 -14.0592
2.8 -8.6814 0.0 -16.6708 -16.6708
2.81 -8.50862 0.0 -19.2689 -19.2689
2.82 -7.62291 0.0 -21.701 -21.701
2.83 -6.11291 0.0 -23.8346 -23.8346
2.84 -4.14298 0.0 -25.5704 -25.5704
2.85 -1.93207 0.0 -26.8521 -26.8521
2.86 0.276407 0.0 -27.6707 -27.6707
2.87 2.2507 0.0 -28.0641 -28.0641
2.88 3.8095 0.0 -28.1104 -28.1104
2.89 4.85913 0.0 -27.9178 -27.9178
2.9 5.42505 0.0 -27.6105 -27.6105
2.91 5.67393 0.0 -27.3127 -27.3127
2.92 5.923 0.0 -27.1343 -27.1343
2.93 6.63475 0.0 -27.1564 -27.1564
2.94 8.39617 0.0 -27.4229 -27.4229
2.95 11.883 0.0 -27.9349 -27.9349
2.96 17.8115 0.0 -28.6519 -28.6519
2.97 26.8803 0.0 -29.4976 -29.4976
2.98 39.7075 0.0 -30.3703 -30.3703
2.99 56.7679 0.0 -31.158 -31.158
3 78.3357 0.0 -31.7537 -31.7537
3.01 104.437 0.0 -32.0713 -32.0713
3.02 134.819 0.0 -32.06 -32.06
3.03 168.936 0.0 -31.7137 -31.7137
3.04 205.956 0.0 -31.0753 -31.0753
3.05 244.794 0.0 -30.2378 -30.2378
3.06 284.153 0.0 -29.3364 -29.3364
3.07 322.599 0.0 -28.5346 -28.5346
3.08 358.63 0.0 -28.0081 -28.0081
3.09 390.772 0.0 -27.9292 -27.9292
3.1 417.661 0.0 -28.4427 -28.4427
3.11 438.126 0.0 -29.6499 -29.6499
3.12 451.265 0.0 -31.5946 -31.5946
3.13 456.497 0.0 -34.2567 -34.2567
3.14 453.601 0.0 -37.5455 -37.5455
3.15 442.726 0.0 -41.3071 -41.3071
3.16 424.384 0.0 -45.334 -45.334
3.17 399.412 0.0 -49.3853 -49.3853
3.18 368.922 0.0 -53.201 -53.201
3.19 334.227 0.0 -56.5315 -56.5315
3.2 296.765 0.0 -59.1551 -59.1551
3.21 258.007 0.0 -60.9004 -60.9004
3.22 219.378 0.0 -61.6581 -61.6581
3.23 182.174 0.0 -61.3963 -61.3963
3.24 147.501 0.0 -60.1579 -60.1579
3.25 116.223 0.0 -58.0572 -58.0572
3.26 88.935 0.0 -55.2709 -55.2709
3.27 65.9502 0.0 -52.02 -52.02
3.28 47.3144 0.0 -48.5506 -48.5506
3.29 32.832 0.0 -45.1121 -45.1121
3.3 22.1097 0.0 -41.9363 -41.9363
3.31 14.609 0.0 -39.2188 -39.2188
3.32 9.70433 0.0 -37.1048 -37.1048
3.33 6.74196 0.0 -35.6804 -35.6804
3.34 5.09323 0.0 -34.9692 -34.9692
3.35 4.1999 0.0 -34.9365 -34.9365
3.36 3.60768 0.0 -35.4964 -35.4964
3.37 2.98623 0.0 -36.5254 -36.5254
3.38 2.13532 0.0 -37.8774 -37.8774
3.39 0.977843 0.0 -39.3997 -39.3997
3.4 -0.458304 0.0 -40.948 -40.948
3.41 -2.0665 0.0 -42.3994 -42.3994
3.42 -3.69246 0.0 -43.6615 -43.6615
3.43 -5.16643 0.0 -44.6777 -44.6777
3.44 -6.33278 0.0 -45.4268 -45.4268
3.45 -7.07428 0.0 -45.9203 -45.9203
3.46 -7.32865 0.0 -46.1949 -46.1949
3.47 -7.09613 0.0 -46.3034 -46.3034
3.48 -6.43807 0.0 -46.3044 -46.3044
3.49 -5.46718 0.0 -46.2537 -46.2537
3.5 -4.33146 0.0 -46.1949 -46.1949
3.51 -3.19405 0.0 -46.1552 -46.1552
3.52 -2.21188 0.0 -46.1421 -46.1421
3.53 -1.51614 0.0 -46.1453 -46.1453
3.54 -1.19696 0.0 -46.1392 -46.1392
3.55 -1.29446 0.0 -46.0898 -46.0898
3.56 -1.79737 0.0 -45.9608 -45.9608
3.57 -2.64952 0.0 -45.7211 -45.7211
3.58 -3.7634 0.0 -45.3513 -45.3513
3.59 -5.03939 0.0 -44.8477 -44.8477
3.6 -6.38811 0.0 -44.2243 -44.2243
3.61 -7.75331 0.0 -43.5122 -43.5122
3.62 -9.13213 0.0 -42.7561 -42.7561
3.63 -10.5901 0.0 -42.0085 -42.0085
3.64 -12.2684 0.0 -41.3235 -41.3235
3.65 -14.3821 0.0 -40.7483 -40.7483
3.66 -17.2085 0.0 -40.3179 -40.3179
3.67 -21.0662 0.0 -40.0487 -40.0487
3.68 -26.2867 0.0 -39.9364 -39.9364
3.69 -33.1799 0.0 -39.9564 -39.9564
3.7 -41.9981 0.0 -40.0659 -40.0659
3.71 -52.9015 0.0 -40.2098 -40.2098
3.72 -65.9276 0.0 -40.3284 -40.3284
3.73 -80.9698 0.0 -40.3662 -40.3662
3.74 -97.7662 0.0 -40.2798 -40.2798
3.75 -115.901 0.0 -40.0439 -40.0439
3.76 -134.82 0.0 -39.6584 -39.6584
3.77 -153.855 0.0 -39.1505 -39.1505
3.78 -172.264 0.0 -38.5731 -38.5731
3.79 -189.277 0.0 -37.9953 -37.9953
3.8 -204.142 0.0 -37.5051 -37.5051
3.81 -216.179 0.0 -37.1886 -37.1886
3.82 -224.825 0.0 -37.1261 -37.1261
3.83 -229.67 0.0 -37.3805 -37.3805
3.84 -230.486 0.0 -37.9846 -37.9846
3.85 -227.246 0.0 -38.9399 -38.9399
3.86 -220.117 0.0 -40.2104 -40.2104
3.87 -209.45 0.0 -41.7237 -41.7237
3.88 -195.758 0.0 -43.3794 -43.3794
3.89 -179.671 0.0 -45.0542 -45.0542
3.9 -161.901 0.0 -46.6174 -46.6174
3.91 -143.189 0.0 -47.94 -47.94
3.92 -124.263 0.0 -48.9141 -48.9141
3.93 -105.791 0.0 -49.4577 -49.4577
3.94 -88.3497 0.0 -49.5303 -49.5303
3.95 -72.3944 0.0 -49.1346 -49.1346
3.96 -58.2466 0.0 -48.3174 -48.3174
3.97 -46.0885 0.0 -47.1709 -47.1709
3.98 -35.9701 0.0 -45.8166 -45.8166
3.99 -27.824 0.0 -44.3996 -44.3996
4 -21.4884 0.0 -43.0719 -43.0719
4.01 -16.7336 0.0 -41.9774 -41.9774
4.02 -13.2901 0.0 -41.238 -41.238
4.03 -10.8762 0.0 -40.9405 -40.9405
4.04 -9.2215 0.0 -41.1284 -41.1284
4.05 -8.08596 0.0 -41.7978 -41.7978
4.06 -7.27283 0.0 -42.8978 -42.8978
4.07 -6.63515 0.0 -44.3355 -44.3355
4.08 -6.07623 0.0 -45.9874 -45.9874
4.09 -5.54514 0.0 -47.7104 -47.7104
4.1 -5.02825 0.0 -49.3579 -49.3579
4.11 -4.53851 0.0 -50.7944 -50.7944
4.12 -4.10385 0.0 -51.9091 -51.9091
4.13 -3.75599 0.0 -52.6263 -52.6263
4.14 -3.52092 0.0 -52.9127 -52.9127
4.15 -3.41148 0.0 -52.7791 -52.7791
4.16 -3.42244 0.0 -52.2781 -52.2781
4.17 -3.52801 0.0 -51.4967 -51.4967
4.18 -3.68131 0.0 -50.546 -50.546
4.19 -3.81548 0.0 -49.5478 -49.5478
4.2 -3.84557 0.0 -48.621 -48.621
4.21 -3.67097 0.0 -47.8684 -47.8684
4.22 -3.17791 0.0 -47.3653 -47.3653
4.23 -2.24206 0.0 -47.1517 -47.1517
4.24 -0.731259 0.0 -47.2293 -47.2293
4.25 1.49117 0.0 -47.5613 -47.5613
4.26 4.56215 0.0 -48.0781 -48.0781
4.27 8.61305 0.0 -48.6857 -48.6857
4.28 13.7621 0.0 -49.2777 -49.2777
4.29 20.1049 0.0 -49.747 -49.747
4.3 27.7034 0.0 -49.9994 -49.9994
4.31 36.5734 0.0 -49.9635 -49.9635
4.32 46.673 0.0 -49.5998 -49.5998
4.33 57.8912 0.0 -48.9046 -48.9046
4.34 70.04 0.0 -47.9109 -47.9109
4.35 82.8513 0.0 -46.6844 -46.6844
4.36 95.9782 0.0 -45.3162 -45.3162
4.37 109.004 0.0 -43.9125 -43.9125
4.38 121.46 0.0 -42.5834 -42.5834
4.39 132.843 0.0 -41.43 -41.43
4.4 142.649 0.0 -40.5341 -40.5341
4.41 150.403 0.0 -39.9487 -39.9487
4.42 155.691 0.0 -39.6929 -39.6929
4.43 158.195 0.0 -39.7514 -39.7514
4.44 157.721 0.0 -40.0738 -40.0738
4.45 154.215 0.0 -40.582 -40.582
4.46 147.78 0.0 -41.1782 -41.1782
4.47 138.673 0.0 -41.7586 -41.7586
4.48 127.292 0.0 -42.2182 -42.2182
4.49 114.154 0.0 -42.4678 -42.4678
4.5 99.8591 0.0 -42.4398 -42.4398
4.51 85.0527 0.0 -42.0956 -42.0956
4.52 70.3764 0.0 -41.4285 -41.4285
4.53 56.4251 0.0 -40.4636 -40.4636
4.54 43.7046 0.0 -39.2538 -39.2538
4.55 32.5983 0.0 -37.8733 -37.8733
4.56 23.3451 0.0 -36.4092 -36.4092
4.57 16.0295 0.0 -34.9513 -34.9513
4.58 10.5867 0.0 -33.5832 -33.5832
4.59 6.8204 0.0 -32.3731 -32.3731
4.6 4.43272 0.0 -31.3684 -31.3684
4.61 3.06195 0.0 -30.591 -30.591
4.62 2.32487 0.0 -30.0375 -30.0375
4.63 1.85859 0.0 -29.6805 -29.6805
4.64 1.35735 0.0 -29.4748 -29.4748
4.65 0.600058 0.0 -29.3626 -29.3626
4.66 -0.534577 0.0 -29.2824 -29.2824
4.67 -2.06732 0.0 -29.1767 -29.1767
4.68 -3.93241 0.0 -28.9986 -28.9986
4.69 -6.00494 0.0 -28.7175 -28.7175
4.7 -8.13866 0.0 -28.3217 -28.3217
4.71 -10.21 0.0 -27.8199 -27.8199
4.72 -12.1628 0.0 -27.238 -27.238
4.73 -14.0491 0.0 -26.6155 -26.6155
4.74 -16.0588 0.0 -25.9992 -25.9992
4.75 -18.5359 0.0 -25.4368 -25.4368
4.76 -21.9759 0.0 -24.9694 -24.9694
4.77 -27.0042 0.0 -24.6263 -24.6263
4.78 -34.3357 0.0 -24.4195 -24.4195
4.79 -44.7172 0.0 -24.3424 -24.3424
4.8 -58.8587 0.0 -24.3693 -24.3693
4.81 -77.358 0.0 -24.458 -24.458
4.82 -100.626 0.0 -24.5531 -24.5531
4.83 -128.82 0.0 -24.5947 -24.5947
4.84 -161.794 0.0 -24.5247 -24.5247
4.85 -199.066 0.0 -24.2898 -24.2898
4.86 -239.814 0.0 -23.854 -23.854
4.87 -282.897 0.0 -23.1996 -23.1996
4.88 -326.907 0.0 -22.3292 -22.3292
4.89 -370.236 0.0 -21.2666 -21.2666
4.9 -411.177 0.0 -20.0572 -20.0572
4.91 -448.019 0.0 -18.758 -18.758
4.92 -479.164 0.0 -17.4374 -17.4374
4.93 -503.225 0.0 -16.1627 -16.1627
4.94 -519.124 0.0 -14.9952 -14.9952
4.95 -526.155 0.0 -13.9858 -13.9858
4.96 -524.037 0.0 -13.1628 -13.1628
4.97 -512.924 0.0 -12.5356 -12.5356
4.98 -493.393 0.0 -12.0895 -12.0895
4.99 -466.399 0.0 -11.7858 -11.7858
5 -433.205 0.0 -11.5707 -11.5707
5.01 -395.297 0.0 -11.3737 -11.3737
5.02 -354.282 0.0 -11.1216 -11.1216
5.03 -311.787 0.0 -10.7417 -10.7417
5.04 -269.36 0.0 -10.1695 -10.1695
5.05 -228.386 0.0 -9.3576 -9.3576
5.06 -190.018 0.0 -8.27859 -8.27859
5.07 -155.134 0.0 -6.92835 -6.92835
5.08 -124.312 0.0 -5.32691 -5.32691
5.09 -97.8392 0.0 -3.51679 -3.51679
5.1 -75.7298 0.0 -1.55881 -1.55881
5.11 -57.7685 0.0 0.471767 0.471767
5.12 -43.5614 0.0 2.49512 2.49512
5.13 -32.5932 0.0 4.43149 4.43149
5.14 -24.2824 0.0 6.20861 6.20861
5.15 -18.0311 0.0 7.76796 7.76796
5.16 -13.2631 0.0 9.06854 9.06854
5.17 -9.45026 0.0 10.09 10.09
5.18 -6.12318 0.0 10.8331 10.8331
5.19 -2.87063 0.0 11.3182 11.3182
5.2 0.672148 0.0 11.5825 11.5825
5.21 4.84132 0.0 11.675 11.675
5.22 9.96429 0.0 11.6522 11.6522
5.23 16.3769 0.0 11.572 11.572
5.24 24.4339 0.0 11.4885 11.4885
5.25 34.5096 0.0 11.4478 11.4478
5.26 46.9867 0.0 11.4845 11.4845
5.27 62.2338 0.0 11.6201 11.6201
5.28 80.5726 0.0 11.8625 11.8625
5.29 102.238 0.0 12.2071 12.2071
5.3 127.335 0.0 12.6389 12.6389
5.31 155.8 0.0 13.1362 13.1362
5.32 187.365 0.0 13.672 13.672
5.33 221.54 0.0 14.2239 14.2239
5.34 257.607 0.0 14.7675 14.7675
5.35 294.631 0.0 15.2878 15.2878
5.36 331.499 0.0 15.7785 15.7785
5.37 366.966 0.0 16.239 16.239
5.38 399.72 0.0 16.6788 16.6788
5.39 428.462 0.0 17.1141 17.1141
5.4 451.982 0.0 17.5646 17.5646
5.41 469.242 0.0 18.0531 18.0531
5.42 479.441 0.0 18.5993 18.5993
5.43 482.074 0.0 19.2208 19.2208
5.44 476.97 0.0 19.9261 19.9261
5.45 464.302 0.0 20.7188 20.7188
5.46 444.583 0.0 21.5889 21.5889
5.47 418.631 0.0 22.5193 22.5193
5.48 387.517 0.0 23.4834 23.4834
5.49 352.498 0.0 24.4483 24.4483
5.5 314.938 0.0 25.3742 25.3742
5.51 276.224 0.0 26.2209 26.2209
5.52 237.687 0.0 26.9503 26.9503
5.53 200.526 0.0 27.5275 27.5275
5.54 165.752 0.0 27.9255 27.9255
5.55 134.144 0.0 28.1266 28.1266
5.56 106.23 0.0 28.125 28.125
5.57 82.2773 0.0 27.9297 27.9297
